File: analysis/data/derived_data/xrd_clean.csv
"theta","BDX14914","BDX14917","BDX14918","BDX14920","BDX14921","BDX14922","BDX14924","BDX14925","BDX14926","BDX15030","BDX15031","BDX15032","BDX15033","BDX15034","BDX15035","BDX15036","BDX15037","BDX15038","BDX15040","BDX15041","BDX15042","BDX15043","BDX15044","BDX15045","BDX15053","BDX15054","BDX15445","BDX15446","BDX15448","BDX15449","BDX15450","BDX15451","BDX15452","BDX15453","BDX15457","BDX15461","BDX15464","BDX15465","BDX15466","BDX15468","BDX15473","BDX15640","BDX15641","BDX15643","BDX15644","BDX15647","BDX15649","BDX15651","BDX15652","BDX15653","BDX15654","BDX15659","BDX15660","BDX15661","BDX15662","BDX15663","BDX15664","BDX15665","BDX15666","BDX15668","BDX15669","BDX15671","BDX15673","BDX15674","BDX15675","BDX15676","BDX15679","BDX15680","BDX16441","BDX16443","BDX16444","BDX16445","BDX16446","BDX16447","BDX16449","BDX16451","BDX16452","BDX16453","BDX17428","BDX17429","BDX17430","BDX17431","BDX17432","BDX17433","BDX17434","BDX17435","BDX22203"
4,44.2932,3.51759,67.3527,7.2361,56.562,132.023,145.438,24.5416,93.1294,63.6418,65.43,85.697,10.2,50.3665,63.1462,71.7315,80.5391,79.7644,125.068,63.3494,41.8743,35.9659,56.9926,82.3768,45.267,229.1,81.2008,30.5658,121.645,89.603,0,24.2528,104.64,0,27.9989,60.1835,0,72.3534,107.836,100.621,117.435,26.3261,135.058,96.8784,39.0401,26.8674,75.8716,43.6214,127.971,29.0816,22.8816,82.9677,0,116.459,147.741,97.5357,10.4472,17.8356,163.185,40.9164,73.931,0,17.4299,0,8.55696,90.8527,108.904,56.4778,33.943,93.3134,17.4953,1.24037,89.7204,64.662,72.7979,21.5084,18.1119,80.1352,108.708,104.507,109.341,96.5254,111.966,192.666,214.066,176.369,0
7.24,152.426,214.161,201.449,207.018,148.266,71.5816,200.043,246.592,154.877,168.228,217.674,112.324,139.019,101.646,0,117.082,60.2988,154.756,29.5689,86.2402,83.0224,0,88.4578,89.5625,72.9846,103.92,137.94,27.1909,194.355,133.754,91.9761,63.1935,40.7757,58.1253,70.4501,100.94,0,157.883,98.0849,91.116,25.5356,69.6494,41.4036,134.798,130.021,75.375,156.294,62.4864,106.403,37.5926,156.229,67.7272,130.546,0,61.7183,93.6565,65.9713,42.6648,92.2331,55.7989,55.6065,65.35,169.814,40.7929,178.234,128.347,165.771,155.706,82.9447,114.244,160.011,131.99,176.588,149.937,179.552,21.9028,114.546,195.665,121.455,57.0263,46.4709,78.5005,33.2469,129.01,0,90.6034,89.1465
10.48,58.2422,83.8206,12.7094,25.2305,0,66.8277,0,0,55.2287,0,57.7215,0,77.1407,0,24.8086,73.2849,13.2926,0,20.0566,1.90252,9.63082,0,22.6421,7.80165,0,37.921,16.1405,28.6234,0,0,10.7242,12.882,49.7805,61.7659,27.8273,34.0039,0,34.2352,30.4683,29.1298,72.8629,26.6844,32.9298,24.3019,46.2854,53.7805,20.9074,0,86.7939,53.744,10.1889,52.7573,27.1741,6.90405,0,31.2432,51.4982,27.4159,0,42.9689,79.023,16.2589,30.449,0,0,11.2588,0,12.8367,24.238,49.1099,0,42.7107,0,0,22.3418,38.4095,0,1.05632,0,16.135,0,0,24.4898,0,0,31.7419,0
13.72,168.689,152.565,155.41,186.008,160.737,266.466,237.137,246.059,233.462,201.256,184.932,37.7597,23.576,71.4152,91.0484,159.182,228.116,170.853,17.6276,35.2058,74.3774,150.212,115.91,142.437,149.091,111.297,266.747,49.6311,3.71091,39.1987,160.16,95.2903,104.696,189.187,158.103,39.0378,345.415,186.283,116.269,38.9244,131.143,177.019,48.077,88.5633,126.95,92.8731,86.93,63.1201,158.699,182.87,112.877,71.4607,169.355,125.015,71.349,163.701,383.367,179.994,136.058,153.899,95.7007,0,192.706,184.392,226.67,130.382,223.749,126.415,163.927,82.6051,25.4007,55.1224,201.494,237.933,49.9744,58.59,44.7546,61.5474,662.189,577.751,578.458,570.382,625.05,481.314,425.533,508.819,394.784
16.96,0,48.8155,50.0767,21.2036,42.3533,0,16.1376,13.3279,12.3998,67.1695,58.2378,26.7075,14.5568,75.6756,32.1281,4.62036,0,0,0.942577,20.2884,109.698,80.3401,44.3388,7.28262,0,43.4425,12.1287,0,44.7573,17.8742,44.8405,0,8.39609,109.53,0,0,69.4349,0,25.3693,0,0,8.64116,69.4916,3.52523,0,5.3278,64.6978,40.6662,52.6165,0,57.2029,39.8736,5.27773,41.2995,0,21.1593,29.0212,37.6281,29.7888,8.05513,42.2852,0,0,0,56.5941,27.4825,0,26.9838,2.53967,0,41.5548,0,24.6497,0,59.1505,0,0,0,53.1477,41.8202,0,21.0894,102.061,44.7453,0,26.4335,74.0037
20.2,1247.4,1393.17,1221.82,1385.16,1251.55,1288.23,1348.38,1348.85,1276.67,1315.76,1298.92,299.868,361.075,192.671,240.054,162.429,120.618,114.316,460.466,205.964,412.393,355.67,122.764,185.926,115.267,192.872,110.642,166.781,362.567,250.908,173.297,151.8,156.41,105.05,189.116,133.713,131.696,184.94,216.234,299.194,310.645,182.001,523.533,102.901,116.951,192.457,150.55,97.2904,124.914,173.488,140.66,205.848,68.5675,85.2416,213.329,199.684,79.979,164.863,120.056,151.063,205.239,222.7,156.542,118.546,182.277,116.364,213.244,138.454,127.683,67.9954,212.824,126.864,144.74,143.008,247.582,474.376,246.849,89.1045,43.3382,134.275,102.283,80.6352,40.6932,57.2431,61.0035,51.9077,84.6745
23.44,0,0,0,0,19.6854,0,16.7362,0,0,3.10011,5.71911,509.692,481.212,784.861,613.755,936.802,944.078,767.303,410.923,1232.93,599.939,466.39,433.444,667.27,836.531,1085.96,653.44,491.922,509.849,516.186,1028.91,319.68,691.815,820.199,986.14,690.82,468.795,822.567,1145.09,521.535,494.51,1140.84,522.512,457.066,778.659,982.697,921.949,542.634,1061.84,853.161,800.907,1414.3,401.566,483.565,415.865,991.295,614.079,824.966,1144.39,1347.84,959.704,396.403,748.558,694.892,1913.05,1112.43,1134.44,953.803,704.989,479.341,946.938,610.849,756.928,675.281,1080.41,550.694,429.927,353.987,1021.01,722.787,1079.05,774.459,948.123,968.291,862.361,982.33,1313.56
26.68,12279.5,9715.96,12176.7,12351.6,11308.7,23722.3,15490.1,9358.78,19813.9,17097.2,13892.4,13932,15191.1,16337.8,21175.7,17615.2,21249.6,29348.9,17072.8,24152.6,30672.1,11867.7,26804.5,13174.6,18747.6,11773.8,26580.4,15700.1,12291.5,25253.3,20581.6,14925.7,15160.7,21268.5,17372,24678,24261.3,19070.8,23090.4,22616.3,16357.8,14469.9,26726.9,10764.1,23744.1,31901.2,15387.6,13787.1,15149.4,13374.1,19817.2,13799.6,15211.8,13906.7,17622.6,31638.3,15356.5,13717.9,14572.7,15897.4,23790.5,32896.5,30869.5,20357.6,18525.7,14523,31057.5,19382.1,16640.8,11669.2,38264.5,9636.38,11105.7,25871.1,24873,10575.6,14373.5,14803.4,6302.36,11372.5,8118.06,9875.77,8931.22,5865.42,6285.24,7401.06,3285.29
29.92,682.745,685.244,674.225,688.928,644.477,734.78,673.354,671.869,852.618,765.975,726.919,400.325,329.517,891.643,419.91,1105.59,1359.29,1271.03,440.973,1003.4,561.828,512.435,738.451,2677.19,654.349,1283.46,2098.16,782.994,694.228,937.635,853.318,514.698,723.849,1474.55,1215.95,870.983,2574.15,1616.74,1909.22,552.788,404.413,1194.6,554.246,913.013,1003.18,854.79,639.114,732.55,942.407,561.621,814.732,955.085,1001.66,651.789,587.033,887.546,2367.64,986.852,778.576,1261.66,905.856,541.935,891.763,1203.24,1160.17,1032.24,1092.77,1081.01,4322.54,1989.13,294.174,802.102,4225.02,692.878,410.003,377.359,376.383,562.352,3411.05,3008.74,2634.71,2863.93,3883.65,1418.42,1350.17,1354.49,543.505
33.16,587.316,544.389,592.608,584.467,605.016,529.263,558.083,665.528,584.334,409.874,316.073,605.79,598.179,380.918,520.619,130.13,829.229,567.246,330.791,951.679,180.249,134.668,172.338,436.528,118.7,927.615,777.226,237.966,467.749,327.505,355.294,386.554,436.596,398.19,445.446,122.893,1055.51,864.435,1038.52,111.671,816.838,1105.72,529.086,299.563,299.597,581.673,534.742,551.386,1227.46,633.101,955.815,905.785,132.999,90.9363,841.542,968.496,284.302,4.33177,640.791,842.183,303.188,461.38,182.421,652.747,1377.04,281.394,277.562,983.094,474.581,168.743,62.7178,530.211,529.218,403.97,203.273,95.6951,132.186,22.5326,218.12,624.451,28.822,501.516,278.062,0,88.9374,121.767,909.214
36.4,184.137,221.944,199.697,324.798,261.552,254.513,208.062,220.933,183.218,204.145,233.773,213.791,265.359,414.245,241.239,549.101,599.672,582.037,341.117,258.971,221.83,264.206,380.989,400.761,463.701,549.961,456.927,322.07,288.883,399.712,449.312,301.854,395.097,521.967,649.34,300.587,622.27,542.986,345.667,278.616,243.683,449.611,215.522,296.883,401.887,509.05,458.054,323.138,455.021,536.583,518.284,335.971,700.619,686.002,177.406,620.84,691.145,716.454,745.967,429.604,439.478,200.678,481.317,779.088,274.249,669.454,494.688,496.754,526.498,198.341,488.354,378.119,525.283,573.961,488.754,126.102,207.482,328.149,245.159,612.964,0,704.872,104.538,108.85,102.529,203.518,104.862
39.64,228.614,299.083,173.015,262.484,224.15,215.939,192.938,160.7,387.26,168.408,300.266,483.098,477.24,518.258,460.354,410.526,482.245,509.697,746.029,419.275,665.921,690.342,590.928,478.579,723.977,466.375,373.803,917.33,618.004,712.347,489.91,676.481,423.355,409.624,372.175,590.83,112.823,306.818,181.395,594.486,424.177,313.728,807.096,509.664,381.007,333.733,361.288,493.431,289.677,324.876,253.287,439.75,276.411,185.964,286.295,388.169,146.746,231.671,276.513,222.912,256.693,448.947,320.856,310.424,462.432,407.164,406.68,332.026,706.535,860.581,274.275,339.321,722.251,320.625,265.505,501.354,493.466,300.703,149.186,51.3823,86.1738,110.739,114.45,185.298,167.256,182.057,170.336
42.88,148.125,56.529,205.216,119.975,81.2032,125.945,106.273,131.236,125.446,110.375,161.372,157.707,170.391,209.282,185.192,191.618,90.0842,190.221,107.143,47.6,44.6076,52.9014,96.7398,360.4,38.7062,145.385,179.851,28.3706,46.8493,1.96468,153.149,138.107,65.7277,159.386,108.845,190.421,254.325,164.228,140.193,124.423,169.128,102.568,96.4252,9.41525,112.51,169.494,141.959,162.459,67.4267,94.831,150.298,106.239,148.541,73.299,85.719,134.519,320.471,122.459,216.062,203.821,71.9194,72.3373,146.861,155.369,0,146.514,97.855,115.79,371.688,291.781,0,116.821,377.672,39.3862,51.5588,115.416,63.2198,102.845,847.525,410.192,822.881,359.15,853.678,697.795,658.98,720.075,402.344
46.12,61.6233,122.205,125.428,93.8397,144.249,55.8972,142.908,155.906,84.8187,92.9903,108.479,39.653,105.349,17.9893,36.292,51.8755,107.885,98.7538,5.76667,24.2021,28.9273,20.4393,22.368,84.8484,37.3845,110.939,148.45,0,68.1824,70.1567,203.698,63.0735,64.5315,86.181,198.797,83.7133,133.476,131.113,96.458,0,36.7301,100.056,0,0,77.5438,175.104,136.782,55.741,123.059,121.868,152.455,57.5175,146.681,95.2681,55.3424,164.561,73.9881,100.386,52.2624,130.145,72.855,108.138,124.359,111.683,137.678,31.8604,54.653,79.2837,187.086,48.6943,70.6889,55.9605,174.582,38.2529,50.7914,0,39.5513,59.9988,56.727,116.427,13.3959,137.788,114.079,133.772,111.707,76.7532,122.093
49.36,169.063,149.569,169.469,145.569,181.182,193.551,95.2235,127.803,147.6,152.648,106.57,75.13,174.934,134.838,108.668,110.818,333.626,281.587,85.7828,180.132,75.317,119.32,94.6911,211.448,154.127,286.464,457.977,3.25742,55.4714,109.55,211.063,36.7089,92.7209,314.147,117.49,184.928,673.17,268.582,248.743,18.3914,113.69,129.71,100.957,40.0865,122.285,236.063,260.264,37.269,233.33,274.354,272.436,130.914,269.572,302.93,110.751,131.735,623.329,209.072,226.241,137.335,193.737,27.2828,222.856,499.114,156.742,135.869,107.034,251.344,80.4607,47.1411,171.292,73.1604,62.146,329.464,76.8148,88.6625,96.9984,10.4281,1017.59,653.031,1073.61,554.179,1031.94,1283.17,1556.5,1565.33,1999.85
52.6,38.1757,0,4.29081,0,69.9797,30.9307,0,9.18667,43.4208,0,16.4637,28.7898,7.90911,0,0,0,73.7729,34.6208,53.9417,0,0,0,11.4192,59.849,0,9.01969,17.6837,39.2305,0,75.1874,0,28.8221,0,0,0,63.9217,98.6029,13.4228,11.7457,38.8576,0,17.0051,0,0,5.07139,0,10.3414,0,4.30173,36.0664,37.3023,0,63.7279,5.81643,21.0203,39.7776,154.812,59.5598,14.4284,0,6.0444,0,0,86.0172,64.4476,0,62.2499,0,234.503,139.292,0,0,296.601,58.5205,0,55.1805,4.52621,0,366.048,145.843,209.057,135.636,342.681,65.3668,127.058,54.2556,37.4768
54,308.753,240.203,208.126,293.497,121.707,237.298,190.732,209.776,276.266,170.042,173.762,111.035,150.202,94.3621,117.885,3.03267,17.7047,66.4572,111.811,165.77,80.2451,56.4746,63.2794,0,10.7404,137.642,28.6949,75.7941,171.067,128.056,49.7573,126.086,130.851,0,23.3521,35.5929,36.1221,6.7537,61.8724,66.3423,257.104,131.902,199.951,108.214,78.5424,0,69.5713,134.177,92.0883,54.1645,69.166,207.784,34.4437,0,237.849,50.5941,22.6666,0,30.5431,71.7359,65.6001,125.962,34.0347,0,422.308,34.4541,0,25.45,0,58.8979,34.0625,141.756,23.8698,43.3661,0,88.7633,170.172,32.8793,0,0,4.31103,0,28.5885,0,0,32.7397,360.157