File: analysis/data/derived_data/xrd_raw.csv
"theta","BDX14914","BDX14917","BDX14918","BDX14920","BDX14921","BDX14922","BDX14924","BDX14925","BDX14926","BDX15030","BDX15031","BDX15032","BDX15033","BDX15034","BDX15035","BDX15036","BDX15037","BDX15038","BDX15040","BDX15041","BDX15042","BDX15043","BDX15044","BDX15045","BDX15053","BDX15054","BDX15445","BDX15446","BDX15448","BDX15449","BDX15450","BDX15451","BDX15452","BDX15453","BDX15457","BDX15461","BDX15464","BDX15465","BDX15466","BDX15468","BDX15473","BDX15640","BDX15641","BDX15643","BDX15644","BDX15647","BDX15649","BDX15651","BDX15652","BDX15653","BDX15654","BDX15659","BDX15660","BDX15661","BDX15662","BDX15663","BDX15664","BDX15665","BDX15666","BDX15668","BDX15669","BDX15671","BDX15673","BDX15674","BDX15675","BDX15676","BDX15679","BDX15680","BDX16441","BDX16443","BDX16444","BDX16445","BDX16446","BDX16447","BDX16449","BDX16451","BDX16452","BDX16453","BDX17428","BDX17429","BDX17430","BDX17431","BDX17432","BDX17433","BDX17434","BDX17435","BDX22203"
3,49009,47744,49186,48603,49884,47884,49034,48680,46252,48552,48308,47904,50020,46997,49207,46467,44625,46059,49129,47282,46706,49324,47435,45095,42082,41355,39033,40100,42310,49532,45221,46849,45894,46984,46270,47695,45660,45987,47389,46978,46900,45623,47761,46016,46429,45536,50573,46134,45003,47220,45168,47452,45120,46721,47542,46623,45598,46240,45448,44502,46048,48062,42582,43108,45951,44662,44248,44418,46758,44300,46243,48206,44514,45021,49012,50152,48276,47137,27443,28364,28185,28041,28208,28253,27196,27585,28930
6.02266,13498,13744,14083,14149,12442,12312,11928,14094,11653,13472,13250,10965,13023,11243,11713,11476,9918,10897,12853,11457,10765,11297,11033,11539,10926,10955,11289,10911,12188,11267,10063,10485,10360,10959,11157,11116,10449,10693,11449,11743,11228,10538,11272,10846,11082,10891,11034,10423,10069,10039,11081,11367,9857,10626,11018,11060,9908,10254,10451,10104,10280,11314,9920,9730,11552,10885,10396,10325,10470,10444,11294,11133,10507,11050,11164,12248,11402,10882,10328,10842,10980,10523,10955,11079,9473,9800,10248
9.04532,9040,8857,9018,9363,8249,7948,8020,8918,7744,8827,8543,8153,8934,7693,8307,7758,6642,7331,9341,8281,8133,8178,7933,7700,7528,7473,7501,7814,8741,8521,6962,7785,7653,7738,7492,7977,7298,7598,7845,8337,8372,7372,8565,7877,7741,7564,8107,7475,7287,7267,7563,8025,6992,7695,8105,7616,7287,7508,7332,7238,7411,8649,6868,6727,10439,7611,7289,7530,7336,7214,8875,8289,7196,7769,8193,9636,8924,7843,6995,7625,7981,7004,7703,7414,6987,7029,7196
12.068,9747,9593,9848,9886,9380,8996,9061,9654,8526,9298,8692,6712,7130,6647,6805,6769,6364,6357,6929,6896,6493,6434,6647,6558,6556,6718,6718,6714,6927,6885,6272,6621,6652,6746,6610,6872,6324,6735,6818,6852,6669,6595,6599,6560,6728,6533,6894,6561,6768,6613,6675,6929,6423,6829,6723,6974,6486,6600,6610,6623,6695,6877,6478,6227,7174,6653,6555,6686,6320,6196,7402,6915,6347,6613,7179,7121,6986,6587,6641,6916,6941,6860,6979,6625,6543,6461,6769
15.0906,5584,5712,5548,5793,5470,5379,5288,5751,5416,5444,5418,6017,6427,5945,6224,6095,5688,5666,6171,5956,5892,5983,6062,5917,6022,6068,6192,6153,6580,6272,5847,5972,5947,6105,6028,6232,5682,6181,6048,6220,6065,6098,6138,5920,6015,5971,6056,6080,5994,6020,6073,6152,5848,6063,6164,6138,5926,5750,6068,6043,5967,6261,5965,5835,6638,5912,5867,5903,5668,5586,6534,6333,5657,6013,6243,6608,6208,6101,6012,6162,6334,6211,6350,6176,5899,5887,6261
18.1133,5154,5099,5174,5193,5026,4943,4951,5292,4845,5052,4863,5799,6078,5340,5636,5444,5258,5155,5825,5508,5587,5541,5387,5379,5534,5706,5593,5658,6219,5576,5232,5386,5514,5431,5487,5611,5323,5462,5488,5623,5759,5506,5599,5431,5342,5417,5550,5326,5664,5474,5609,5557,5231,5641,5709,5698,5193,5286,5398,5454,5523,5965,5233,5339,5845,5426,5206,5488,5144,4820,6016,5940,5172,5335,5698,6206,5891,5608,5354,5286,5229,5262,5537,5134,5057,5057,5588
21.1359,6441,6365,6409,6736,6365,6022,6187,6877,6199,6350,6106,5822,6282,5389,6009,5359,5228,5097,5928,5514,5910,5947,5602,4957,5696,5596,5252,5602,6308,5893,5446,5572,5580,5358,5377,5591,4962,5405,5252,5921,5793,5383,5852,5541,5307,5368,5452,5392,5602,5587,5651,5680,5189,5390,5946,5713,4996,5282,5533,5477,5550,6215,5246,5160,6130,5186,5327,5276,4911,4534,6105,6013,4805,5217,5487,6288,5852,5568,4805,5115,5039,4979,4835,4740,4705,4714,5210
24.1586,5491,5396,5435,5491,5293,4984,5211,5387,5112,5204,4990,5890,6127,5530,5830,5913,6046,5868,5694,6225,5505,5517,5411,5319,6051,6535,6216,5630,6355,5882,6059,5690,5932,6070,6113,5840,6347,6200,6355,5611,6100,6382,5760,5692,5640,6094,6324,5774,6560,6494,6542,6514,5867,6011,6228,6329,5540,5898,6194,6312,6217,6257,6151,6241,6563,5679,5788,6247,4722,4467,6149,6256,4811,5781,5884,6244,5906,5633,4711,5657,4803,5607,5052,4698,4940,5087,5928
27.1813,5156,4904,5004,5127,4888,4751,4917,5058,4759,4959,4678,5944,5948,5450,5857,5522,5582,5344,5947,5747,6186,5941,5506,5154,5765,5847,5732,5823,6325,6067,5405,5831,5612,5692,5653,5840,5516,5873,5799,5984,5961,5650,5805,5769,5436,5507,5879,5682,5661,5749,5659,5818,5084,5289,6159,5858,5710,5480,5739,5711,5666,6333,5573,5872,7960,5656,5353,5590,5702,4519,6385,6039,5631,5595,5822,6759,6157,5963,5146,5704,5866,5735,5280,5131,4988,4954,5654
30.2039,4131,4205,3930,4226,4047,3845,4213,4311,4014,3893,3858,5190,5141,5066,5046,5256,5125,4739,5132,5054,5393,5197,5382,5529,5228,5214,5473,5504,5818,5410,4901,5247,5265,5401,5306,5281,5473,5650,5129,5553,5226,5148,4889,5450,5165,4919,5105,5305,5029,5226,5000,5170,5309,5230,5531,5109,6033,5267,5020,5244,5262,5557,5150,5211,5959,5252,5022,5052,6049,5023,5653,5535,5881,5374,5452,5676,5277,5436,6356,5599,9064,5500,6905,7851,6542,6798,7473
33.2266,4197,4090,4092,4307,4227,3997,4225,4368,4096,3741,3804,5098,5172,4416,4927,4430,5590,4557,4344,5658,4247,4282,4316,4399,4149,5785,5786,4640,5210,4863,4584,4732,4727,4858,4789,4417,5893,5761,6056,4377,5659,5832,4858,4546,4370,5023,4947,4948,6075,5321,5983,5601,4058,4224,5753,6224,4256,3881,5064,5325,4838,5214,4480,5384,6191,4368,4545,5722,4273,3599,4734,5407,4360,4790,4665,4741,4671,4379,3924,4664,3593,4747,3936,3316,3437,3548,4879
36.2492,4204,4353,4116,4415,4418,4223,4281,4280,4294,4072,4055,4432,4704,4293,4381,4652,4614,4577,4769,4309,4729,4634,4881,4385,4709,4619,4838,4725,4888,4675,4572,4429,4368,4540,4607,4698,4315,4714,4384,4440,4501,4453,4696,4361,4328,4331,4392,4225,4410,4705,4457,4439,4544,4776,4388,4680,4544,4568,4448,4317,4508,4617,4611,4460,4849,4592,4436,4438,4687,4304,4712,4640,4722,4653,4640,4965,4706,4589,3720,4066,3471,4343,3621,3298,3273,3409,3958
39.2719,4471,4475,4483,4640,4416,4298,4459,4523,4461,4316,4137,4001,4488,4304,4332,4494,4481,3831,4041,4698,4017,4139,3927,4721,4367,4966,4808,4120,4541,4146,4401,4197,4416,4787,4893,4743,4918,5135,4797,4165,4204,4798,3772,4175,4842,5054,4963,4614,4918,4906,4866,4800,4893,4908,4253,4783,4696,4565,4468,4821,4594,4136,4505,4566,4476,4691,4480,4722,4804,4895,4629,4927,4865,4691,4994,4496,4414,4445,4246,4669,3419,4734,4205,3444,3321,3387,3568
42.2945,3548,3396,3539,3706,3584,3516,3592,3614,3540,3244,3262,3610,3802,3689,3619,4002,4180,3914,3575,4000,3615,3654,3614,3999,3968,4304,4512,3570,3890,3792,4004,3437,3889,4343,4349,4074,4424,4566,4387,3723,3743,4105,3436,3456,3929,3976,4247,3817,4026,4145,4196,4167,4060,4080,3872,4364,5003,4118,4151,4116,4222,3785,4072,4407,4307,4087,3945,4461,3729,3221,4631,4211,3762,3912,4390,3947,3895,3855,5792,4567,5633,4511,5681,6046,5706,5706,5563
45.3172,3757,3681,3694,3755,3765,3777,3898,3826,3772,3371,3388,3377,3592,3246,3376,3345,3434,2937,3282,3336,3631,3491,3315,3100,3426,3401,3359,3408,3825,3449,3325,3377,3296,3437,3435,3504,3129,3496,3413,3417,3467,3401,3267,3283,3214,3358,3525,3308,3412,3524,3428,3535,3244,3368,3514,3528,3221,3187,3430,3356,3548,3552,3572,3381,4123,3307,3275,3236,3142,2980,4200,3798,3128,3365,3923,3797,3752,3604,3255,3107,3012,3329,3109,2833,2807,2907,3321
48.3399,3287,3136,3267,3335,3246,3300,3515,3367,3396,3035,3111,3627,3936,3449,3762,3607,3530,3070,3515,3893,3705,3842,3626,3549,3532,3538,3822,3922,4194,4024,3602,3705,3682,3686,3542,3730,3383,3843,3641,3668,4046,3704,3668,3856,3784,3610,3762,3645,3631,3719,3567,3799,3508,3725,3766,3628,3460,3274,3589,3603,3722,3610,3586,3512,3853,3545,3563,3623,3861,3851,3766,4124,3895,3682,3996,3985,4099,3816,3631,3345,3320,3424,3435,3270,3160,3325,3991
51.3625,2693,2627,2795,2716,2823,2700,2860,2646,2748,2423,2446,2827,3015,2854,2801,3061,3368,2853,2812,3180,2915,3110,3073,2867,3006,3238,3507,2932,3199,3152,3111,2785,3025,3267,3080,3270,3357,3460,3252,2915,3019,3141,2799,2795,2959,3100,3136,3017,3211,3423,3277,3298,3180,3289,3094,3259,3685,3154,3146,3270,3183,3044,3200,3295,3392,3199,3011,3191,2711,2578,3590,3307,2768,3385,3459,3325,3202,3119,3368,3323,3120,3563,3239,2971,2903,2888,3551
54.3852,3302,3421,3204,3425,3559,3344,3532,3472,3378,3034,3165,3369,3462,3005,3271,2967,3369,2959,3032,3484,3508,3440,3273,2904,3150,3548,3735,3167,3630,3366,3221,3020,3211,3282,3266,3182,3296,3633,3325,3206,3551,3519,3243,3076,3066,3280,3329,3129,3590,3447,3426,3522,3114,3206,3642,3738,3152,3079,3271,3427,3347,3436,3253,3526,3945,2996,2968,3480,2748,2648,3707,3757,2727,3133,3472,3699,3492,3158,3127,3173,2924,3341,3051,2746,2585,2649,3250
57.4078,5925,6099,5995,5963,5318,5507,6093,5863,5886,5514,5665,3962,4319,3865,3947,3803,3383,3010,4216,3713,4188,4465,4078,3884,3556,3526,3646,4371,4737,4547,3329,4003,3331,3633,3498,4215,3509,3813,3636,4700,4215,3687,4494,4376,3624,3696,3759,3777,3565,3674,3474,3645,3544,3771,4236,3499,3208,3600,3506,3541,3554,3652,3385,3247,4008,3464,3397,3402,3548,3933,3912,4069,3459,3648,4068,5099,4599,4311,3242,3164,2884,3403,2996,2659,2605,2642,3372
60.4305,2866,2933,2921,2954,3071,2920,3025,2939,2964,2747,2717,3030,3417,3039,3062,3120,3251,2979,3043,3293,3254,3127,3184,3048,3133,3401,3459,3139,3410,3245,3157,3031,3116,3331,3316,3321,3231,3482,3364,3083,3244,3342,2908,2990,3097,3130,3345,3102,3273,3322,3277,3371,3177,3201,3191,3372,3228,3018,3258,3267,3304,3222,3242,3268,4052,3198,3253,3244,3125,2847,3903,3385,3024,3263,3704,3581,3536,3258,3349,3149,3278,3347,3354,2859,2807,2861,3201
63.4532,2768,2790,2717,2840,2824,2897,2968,2818,2975,2610,2500,2983,3079,2811,2945,3160,3062,2655,3086,3012,3192,3187,3170,2788,2976,3144,3298,3128,3367,3181,3060,2925,2990,3172,3079,3233,3012,3239,2951,3052,3035,3079,2768,2864,2936,3004,3030,3012,3230,3197,3018,3104,3151,3143,3080,3051,3145,2989,2891,3002,3081,3181,3153,3051,3348,3016,2881,3104,2818,2649,3766,3212,2848,3044,3500,3503,3326,3222,2907,3060,2646,3127,2819,2464,2502,2477,3035
66.4758,2439,2480,2469,2644,2648,2555,2756,2579,2570,2330,2210,2823,2885,2709,2718,3007,3149,2688,2719,3085,2855,3001,3046,2972,2985,3251,3232,2780,3091,2847,3122,2709,2856,3120,3113,3081,3087,3369,3088,2848,2830,3237,2711,2819,2967,2955,2934,2958,3160,3156,3128,3084,2920,3041,2966,3394,3104,2942,3011,3119,3020,2967,3164,3094,3345,3046,2918,3077,3065,2600,3346,3349,3217,2940,3257,3361,3119,3126,3348,3141,3093,3314,3372,2797,2790,2776,3056
69.4985,2739,2780,2757,2933,2983,2999,2908,2931,3001,2743,2597,2866,2863,2603,2845,2927,2933,2490,2810,2929,2922,2986,2930,2607,2873,2935,3043,2894,3214,2906,2844,2686,2791,2823,2861,3028,2891,3134,2867,2709,2937,2991,2743,2676,2733,2785,2891,2720,2969,2873,2892,2946,2876,2985,3021,2948,2846,2857,2773,2870,2969,3063,2883,2946,3394,2780,2752,2872,2634,2390,3420,3134,2518,2841,3133,3376,3000,2993,2883,2725,2686,2964,2891,2614,2461,2558,3181
69.8187,2641,2559,2625,2635,2816,2625,2795,2737,2786,2432,2422,2767,2869,2600,2767,2726,2928,2501,2738,2794,2972,2820,2828,2613,2747,2922,3054,2829,3198,2835,2906,2668,2698,2883,2853,2875,2854,3116,2769,2829,2853,2925,2612,2650,2647,2703,2838,2760,2886,2966,2870,3046,2813,2730,3029,3010,2864,2681,2758,2789,2867,2975,2850,2953,3283,2701,2802,2831,2485,2292,3344,3073,2483,2776,3260,3377,3079,2947,3106,2895,2799,2895,2984,2767,2711,2683,3264